#Combined spectrum created by combine_nIR_spectra.pro, knotE_N3.specfrom list
#Wavelengths were already in vacuum heliocentric
#Units are erg/s/cmsq/A, determined by xtellcor_general
wave  flam  noise
11436.9000  -1.795e-17  5.534e-17
11439.2000  1.203e-16  4.374e-17
11441.4000  1.857e-17  4.261e-17
11443.7000  -1.751e-16  3.584e-17
11446.0000  -8.348e-17  3.160e-17
11448.3000  -3.572e-17  2.931e-17
11450.6000  -1.124e-16  2.687e-17
11452.9000  -1.364e-18  2.325e-17
11455.2000  -3.597e-17  1.885e-17
11457.5000  -7.648e-17  1.380e-17
11459.8000  -2.567e-18  1.249e-17
11462.1000  -5.222e-17  1.291e-17
11464.4000  -1.470e-17  1.387e-17
11466.7000  -1.109e-17  1.369e-17
11469.0000  2.008e-17  1.301e-17
11471.2000  2.577e-18  1.175e-17
11473.5000  -1.397e-17  9.758e-18
11475.8000  -2.014e-18  8.965e-18
11478.1000  1.205e-17  8.420e-18
11480.4000  -8.348e-18  7.705e-18
11482.7000  -2.290e-17  7.490e-18
11485.0000  1.065e-17  7.001e-18
11487.3000  7.370e-18  7.149e-18
11489.6000  1.627e-17  6.929e-18
11491.9000  6.893e-18  6.948e-18
11494.2000  -6.439e-18  7.074e-18
11496.5000  3.912e-18  7.398e-18
11498.8000  5.663e-18  6.928e-18
11501.1000  8.462e-18  6.151e-18
11503.4000  -1.874e-18  6.137e-18
11505.7000  7.906e-18  6.101e-18
11508.0000  1.669e-18  6.321e-18
11510.3000  -3.256e-18  6.146e-18
11512.6000  3.147e-18  5.828e-18
11515.0000  3.389e-18  5.243e-18
11517.3000  -7.467e-18  5.370e-18
11519.6000  7.394e-18  5.343e-18
11521.9000  9.061e-18  5.501e-18
11524.2000  1.441e-17  5.724e-18
11526.5000  2.604e-18  5.454e-18
11528.8000  -4.010e-18  5.460e-18
11531.1000  8.817e-18  8.268e-18
11533.4000  -4.089e-18  1.276e-17
11535.7000  -6.423e-18  1.523e-17
11538.0000  3.584e-17  1.618e-17
11540.3000  2.407e-17  1.606e-17
11542.6000  3.730e-19  1.270e-17
11544.9000  -3.630e-19  7.795e-18
11547.3000  2.597e-18  4.868e-18
11549.6000  -4.207e-18  4.500e-18
11551.9000  5.987e-18  4.609e-18
11554.2000  -3.652e-19  4.584e-18
11556.5000  3.072e-18  5.170e-18
11558.8000  -1.142e-17  6.853e-18
11561.1000  -1.015e-17  8.341e-18
11563.4000  9.129e-18  9.128e-18
11565.8000  1.351e-17  8.707e-18
11568.1000  2.349e-19  8.009e-18
11570.4000  -2.534e-18  6.314e-18
11572.7000  3.033e-18  4.991e-18
11575.0000  1.833e-17  4.640e-18
11577.3000  3.886e-18  4.670e-18
11579.7000  8.258e-18  4.456e-18
11582.0000  -3.052e-18  5.333e-18
11584.3000  1.351e-17  8.837e-18
11586.6000  -3.880e-17  1.377e-17
11588.9000  1.352e-17  1.638e-17
11591.2000  3.493e-17  1.746e-17
11593.6000  7.817e-18  1.565e-17
11595.9000  1.337e-18  1.261e-17
11598.2000  -4.353e-18  7.857e-18
11600.5000  -7.814e-19  5.546e-18
11602.8000  -1.907e-17  4.926e-18
11605.2000  -1.021e-17  4.421e-18
11607.5000  -2.611e-18  4.453e-18
11609.8000  1.370e-17  4.500e-18
11612.1000  1.617e-18  4.703e-18
11614.5000  3.606e-18  4.546e-18
11616.8000  7.994e-19  4.690e-18
11619.1000  5.680e-19  4.848e-18
11621.4000  -1.036e-17  6.557e-18
11623.8000  1.052e-18  8.039e-18
11626.1000  2.966e-17  8.746e-18
11628.4000  3.885e-18  8.701e-18
11630.7000  6.516e-18  8.105e-18
11633.1000  2.868e-18  5.899e-18
11635.4000  9.838e-18  4.714e-18
11637.7000  6.173e-18  4.519e-18
11640.1000  2.278e-18  4.408e-18
11642.4000  -1.469e-17  6.105e-18
11644.7000  -1.987e-18  9.587e-18
11647.0000  1.091e-17  1.242e-17
11649.4000  2.441e-17  1.268e-17
11651.7000  -4.477e-18  1.288e-17
11654.0000  2.793e-17  1.138e-17
11656.4000  1.137e-17  7.378e-18
11658.7000  8.680e-18  4.793e-18
11661.0000  2.307e-18  4.666e-18
11663.4000  4.798e-18  4.481e-18
11665.7000  2.994e-18  4.481e-18
11668.0000  -8.487e-18  4.447e-18
11670.4000  -1.229e-17  4.474e-18
11672.7000  -1.163e-17  4.918e-18
11675.1000  -1.704e-17  5.027e-18
11677.4000  -7.023e-18  5.026e-18
11679.7000  6.252e-18  4.801e-18
11682.1000  6.965e-18  4.282e-18
11684.4000  3.723e-18  4.292e-18
11686.7000  -1.309e-17  4.476e-18
11689.1000  -1.025e-18  4.867e-18
11691.4000  8.211e-18  6.171e-18
11693.8000  -8.849e-18  6.465e-18
11696.1000  1.016e-18  6.748e-18
11698.4000  2.145e-18  6.681e-18
11700.8000  1.522e-17  5.271e-18
11703.1000  -4.166e-18  4.493e-18
11705.5000  -9.210e-19  4.215e-18
11707.8000  1.277e-17  5.112e-18
11710.2000  -1.028e-18  7.121e-18
11712.5000  8.375e-18  9.128e-18
11714.8000  4.236e-20  1.000e-17
11717.2000  -3.731e-18  9.297e-18
11719.5000  1.957e-17  8.486e-18
11721.9000  -1.120e-18  5.673e-18
11724.2000  1.303e-17  4.288e-18
11726.6000  -8.664e-18  4.095e-18
11728.9000  7.114e-18  4.391e-18
11731.3000  1.935e-17  4.263e-18
11733.6000  4.096e-17  4.415e-18
11736.0000  4.495e-17  4.343e-18
11738.3000  6.595e-17  4.511e-18
11740.7000  5.822e-17  4.359e-18
11743.0000  4.914e-17  4.554e-18
11745.4000  3.124e-17  4.318e-18
11747.7000  6.909e-18  4.385e-18
11750.1000  1.528e-17  4.111e-18
11752.4000  -1.423e-17  4.148e-18
11754.8000  9.811e-19  3.951e-18
11757.1000  -1.237e-19  4.276e-18
11759.5000  -8.284e-18  4.094e-18
11761.8000  -4.652e-18  4.122e-18
11764.2000  1.335e-18  4.140e-18
11766.5000  5.992e-18  4.931e-18
11768.9000  1.003e-17  5.034e-18
11771.2000  1.015e-17  5.238e-18
11773.6000  6.477e-18  5.019e-18
11776.0000  -2.115e-18  4.340e-18
11778.3000  2.556e-18  4.190e-18
11780.7000  8.855e-19  4.588e-18
11783.0000  3.273e-18  5.824e-18
11785.4000  7.802e-18  6.242e-18
11787.7000  1.623e-17  6.579e-18
11790.1000  -3.262e-18  6.203e-18
11792.5000  5.767e-18  5.086e-18
11794.8000  7.260e-18  4.037e-18
11797.2000  1.067e-17  3.739e-18
11799.5000  1.213e-17  3.875e-18
11801.9000  2.313e-18  3.708e-18
11804.3000  6.763e-18  3.634e-18
11806.6000  1.004e-17  3.761e-18
11809.0000  7.857e-18  3.702e-18
11811.4000  -1.420e-19  3.503e-18
11813.7000  4.091e-18  3.885e-18
11816.1000  4.037e-18  3.813e-18
11818.4000  -8.401e-18  4.016e-18
11820.8000  -1.618e-19  4.051e-18
11823.2000  5.255e-18  3.836e-18
11825.5000  4.660e-18  3.897e-18
11827.9000  1.675e-18  3.731e-18
11830.3000  -5.554e-19  3.627e-18
11832.6000  9.749e-19  3.637e-18
11835.0000  4.642e-18  3.610e-18
11837.4000  3.301e-18  3.628e-18
11839.8000  -7.350e-20  3.462e-18
11842.1000  -7.864e-18  3.595e-18
11844.5000  5.148e-18  3.465e-18
11846.9000  -8.632e-18  3.718e-18
11849.2000  -1.324e-18  3.990e-18
11851.6000  -6.782e-18  4.040e-18
11854.0000  3.413e-18  3.663e-18
11856.3000  4.977e-18  3.601e-18
11858.7000  -6.231e-18  3.402e-18
11861.1000  9.525e-18  3.768e-18
11863.5000  5.423e-19  4.008e-18
11865.8000  -2.249e-18  4.170e-18
11868.2000  -3.208e-18  3.340e-18
11870.6000  4.478e-18  2.874e-18
11873.0000  3.444e-18  2.774e-18
11875.3000  1.651e-18  3.261e-18
11877.7000  5.904e-19  3.399e-18
11880.1000  7.074e-18  3.365e-18
11882.5000  7.365e-18  3.214e-18
11884.9000  9.810e-20  3.066e-18
11887.2000  -3.145e-19  3.124e-18
11889.6000  -4.570e-18  3.028e-18
11892.0000  2.179e-18  3.020e-18
11894.4000  8.924e-18  3.026e-18
11896.8000  7.033e-18  2.936e-18
11899.1000  1.260e-18  3.059e-18
11901.5000  6.091e-18  3.055e-18
11903.9000  6.311e-18  3.012e-18
11906.3000  1.406e-18  3.069e-18
11908.7000  1.007e-17  2.894e-18
11911.0000  8.333e-18  3.088e-18
11913.4000  4.413e-18  2.956e-18
11915.8000  1.383e-19  2.921e-18
11918.2000  1.201e-18  2.860e-18
11920.6000  -1.070e-18  2.892e-18
11923.0000  4.656e-18  2.883e-18
11925.4000  3.145e-18  2.813e-18
11927.7000  5.012e-18  2.998e-18
11930.1000  8.176e-18  2.814e-18
11932.5000  3.033e-18  2.922e-18
11934.9000  4.735e-18  3.071e-18
11937.3000  2.793e-18  3.054e-18
11939.7000  -5.523e-19  2.925e-18
11942.1000  6.261e-18  2.875e-18
11944.5000  6.268e-18  3.038e-18
11946.9000  7.964e-18  2.902e-18
11949.2000  3.655e-18  3.127e-18
11951.6000  4.517e-18  3.047e-18
11954.0000  -2.236e-19  2.959e-18
11956.4000  1.044e-17  2.729e-18
11958.8000  3.090e-18  2.753e-18
11961.2000  -6.292e-18  3.006e-18
11963.6000  9.001e-18  3.588e-18
11966.0000  1.457e-17  4.396e-18
11968.4000  8.574e-18  5.184e-18
11970.8000  6.587e-18  5.700e-18
11973.2000  1.193e-17  5.855e-18
11975.6000  6.332e-18  5.508e-18
11978.0000  -1.170e-17  5.415e-18
11980.4000  5.199e-19  5.495e-18
11982.8000  6.087e-18  6.139e-18
11985.2000  1.003e-18  7.058e-18
11987.6000  2.639e-19  6.905e-18
11990.0000  7.641e-18  6.464e-18
11992.4000  8.625e-18  5.645e-18
11994.8000  7.301e-19  4.848e-18
11997.2000  1.235e-18  5.086e-18
11999.6000  9.297e-18  6.302e-18
12002.0000  8.980e-18  7.967e-18
12004.4000  -6.052e-18  8.884e-18
12006.8000  8.721e-18  8.667e-18
12009.2000  -4.020e-18  7.911e-18
12011.6000  2.492e-18  6.022e-18
12014.0000  -1.069e-18  3.691e-18
12016.4000  7.312e-18  3.469e-18
12018.8000  4.574e-18  4.476e-18
12021.2000  1.254e-17  5.772e-18
12023.6000  -1.744e-18  7.402e-18
12026.0000  -1.260e-18  9.267e-18
12028.4000  -5.218e-18  9.924e-18
12030.8000  1.557e-17  9.463e-18
12033.2000  1.856e-17  8.511e-18
12035.6000  1.330e-17  6.206e-18
12038.0000  1.188e-17  3.690e-18
12040.5000  6.902e-18  2.822e-18
12042.9000  5.968e-18  2.790e-18
12045.3000  4.640e-19  2.868e-18
12047.7000  8.471e-18  3.362e-18
12050.1000  5.103e-18  4.371e-18
12052.5000  2.051e-17  5.288e-18
12054.9000  4.918e-18  5.487e-18
12057.3000  2.228e-18  5.443e-18
12059.8000  4.270e-18  4.489e-18
12062.2000  4.933e-18  3.288e-18
12064.6000  4.885e-18  2.588e-18
12067.0000  3.092e-18  2.479e-18
12069.4000  2.666e-18  2.453e-18
12071.8000  5.920e-18  2.447e-18
12074.2000  2.914e-18  2.489e-18
12076.7000  4.021e-18  2.443e-18
12079.1000  8.245e-18  2.667e-18
12081.5000  2.353e-18  2.586e-18
12083.9000  1.730e-18  2.453e-18
12086.3000  8.249e-19  2.437e-18
12088.7000  1.810e-18  2.466e-18
12091.2000  1.006e-17  2.377e-18
12093.6000  6.904e-18  2.456e-18
12096.0000  9.010e-18  2.485e-18
12098.4000  1.977e-18  2.524e-18
12100.8000  1.410e-18  2.470e-18
12103.3000  -1.238e-18  2.330e-18
12105.7000  6.660e-18  2.360e-18
12108.1000  4.499e-18  2.390e-18
12110.5000  1.138e-18  2.735e-18
12113.0000  1.058e-18  4.300e-18
12115.4000  -2.387e-18  8.173e-18
12117.8000  -2.537e-17  1.264e-17
12120.2000  8.368e-18  1.532e-17
12122.7000  3.142e-18  1.467e-17
12125.1000  6.239e-18  1.328e-17
12127.5000  1.652e-17  9.773e-18
12129.9000  3.798e-18  7.713e-18
12132.4000  2.027e-17  8.027e-18
12134.8000  1.130e-17  8.660e-18
12137.2000  5.644e-18  8.276e-18
12139.7000  9.298e-18  6.751e-18
12142.1000  7.328e-18  4.537e-18
12144.5000  4.000e-19  3.519e-18
12146.9000  9.767e-18  3.845e-18
12149.4000  2.136e-18  4.298e-18
12151.8000  -2.491e-19  4.883e-18
12154.2000  1.203e-17  5.009e-18
12156.7000  1.322e-17  4.607e-18
12159.1000  8.041e-18  3.965e-18
12161.5000  2.223e-18  2.996e-18
12164.0000  4.996e-18  2.419e-18
12166.4000  9.603e-19  2.377e-18
12168.8000  -2.197e-19  2.451e-18
12171.3000  8.996e-18  2.501e-18
12173.7000  7.945e-18  2.924e-18
12176.2000  6.101e-18  3.083e-18
12178.6000  -2.092e-19  3.211e-18
12181.0000  2.374e-18  3.160e-18
12183.5000  2.114e-18  2.802e-18
12185.9000  7.330e-18  2.681e-18
12188.3000  -4.125e-18  3.430e-18
12190.8000  5.107e-18  4.659e-18
12193.2000  3.247e-18  6.091e-18
12195.7000  2.893e-18  6.061e-18
12198.1000  5.063e-20  5.743e-18
12200.5000  8.283e-18  4.759e-18
12203.0000  7.125e-18  2.948e-18
12205.4000  -3.253e-18  2.489e-18
12207.9000  -4.035e-18  2.358e-18
12210.3000  7.166e-19  2.475e-18
12212.8000  -7.937e-19  2.351e-18
12215.2000  8.460e-18  2.340e-18
12217.6000  8.863e-18  2.555e-18
12220.1000  4.600e-19  3.782e-18
12222.5000  8.078e-18  6.993e-18
12225.0000  -3.353e-18  9.832e-18
12227.4000  -9.497e-20  1.176e-17
12229.9000  1.677e-17  1.122e-17
12232.3000  8.585e-18  1.002e-17
12234.8000  9.883e-18  6.030e-18
12237.2000  1.688e-18  3.104e-18
12239.7000  4.733e-18  2.485e-18
12242.1000  2.180e-18  2.583e-18
12244.6000  7.307e-18  2.559e-18
12247.0000  6.558e-18  2.874e-18
12249.5000  4.538e-18  3.671e-18
12251.9000  6.773e-18  5.490e-18
12254.4000  5.288e-18  6.534e-18
12256.8000  7.347e-18  7.187e-18
12259.3000  8.977e-18  6.301e-18
12261.7000  4.467e-18  5.276e-18
12264.2000  6.036e-18  2.997e-18
12266.6000  1.335e-18  2.236e-18
12269.1000  -2.148e-18  2.119e-18
12271.6000  1.533e-18  2.048e-18
12274.0000  6.028e-18  2.231e-18
12276.5000  -2.859e-18  2.781e-18
12278.9000  1.545e-18  5.266e-18
12281.4000  1.510e-17  8.425e-18
12283.8000  3.604e-17  1.197e-17
12286.3000  -1.196e-17  1.234e-17
12288.8000  -1.053e-17  1.115e-17
12291.2000  -1.943e-18  8.707e-18
12293.7000  -3.699e-18  4.200e-18
12296.1000  4.602e-19  2.716e-18
12298.6000  3.849e-18  2.442e-18
12301.1000  1.482e-18  2.363e-18
12303.5000  2.709e-18  2.473e-18
12306.0000  -4.902e-18  2.410e-18
12308.4000  5.568e-18  2.599e-18
12310.9000  4.643e-18  2.581e-18
12313.4000  -2.343e-18  2.490e-18
12315.8000  3.504e-18  2.769e-18
12318.3000  -4.996e-18  3.681e-18
12320.8000  1.000e-17  5.003e-18
12323.2000  1.501e-17  6.297e-18
12325.7000  2.697e-18  6.185e-18
12328.2000  9.263e-18  5.500e-18
12330.6000  -2.066e-19  4.395e-18
12333.1000  9.722e-19  2.643e-18
12335.6000  5.627e-18  2.048e-18
12338.0000  6.002e-18  2.131e-18
12340.5000  7.275e-18  2.427e-18
12343.0000  9.554e-18  3.913e-18
12345.4000  2.260e-18  6.979e-18
12347.9000  7.958e-19  9.352e-18
12350.4000  -3.727e-18  1.028e-17
12352.9000  1.180e-17  9.423e-18
12355.3000  -1.783e-17  7.972e-18
12357.8000  6.796e-19  4.406e-18
12360.3000  6.216e-18  2.649e-18
12362.8000  2.642e-18  2.312e-18
12365.2000  1.129e-18  2.372e-18
12367.7000  3.747e-18  2.245e-18
12370.2000  2.591e-18  2.161e-18
12372.7000  5.088e-18  2.131e-18
12375.1000  7.606e-18  2.215e-18
12377.6000  2.748e-18  2.144e-18
12380.1000  2.351e-18  2.007e-18
12382.6000  3.281e-18  1.967e-18
12385.0000  8.290e-18  2.136e-18
12387.5000  2.964e-18  2.262e-18
12390.0000  7.687e-18  2.554e-18
12392.5000  -6.856e-18  3.100e-18
12395.0000  -8.705e-18  4.013e-18
12397.4000  5.896e-18  4.955e-18
12399.9000  -1.215e-18  5.046e-18
12402.4000  1.570e-17  4.696e-18
12404.9000  3.354e-18  3.973e-18
12407.4000  3.616e-18  2.608e-18
12409.8000  6.202e-18  2.162e-18
12412.3000  1.458e-18  2.272e-18
12414.8000  1.078e-17  3.412e-18
12417.3000  7.022e-18  5.048e-18
12419.8000  3.674e-19  6.966e-18
12422.3000  -7.389e-18  7.314e-18
12424.8000  8.522e-18  7.020e-18
12427.2000  8.647e-18  5.871e-18
12429.7000  9.455e-18  3.565e-18
12432.2000  1.584e-18  2.363e-18
12434.7000  1.328e-18  2.093e-18
12437.2000  4.601e-18  2.056e-18
12439.7000  4.222e-18  2.057e-18
12442.2000  8.271e-18  2.116e-18
12444.7000  3.227e-18  2.259e-18
12447.2000  2.253e-18  2.270e-18
12449.6000  -3.724e-19  2.454e-18
12452.1000  -4.584e-19  2.401e-18
12454.6000  -9.564e-19  2.350e-18
12457.1000  9.490e-19  2.349e-18
12459.6000  -1.299e-18  2.297e-18
12462.1000  9.837e-18  2.260e-18
12464.6000  1.831e-18  2.236e-18
12467.1000  4.343e-18  2.315e-18
12469.6000  -1.124e-18  2.452e-18
12472.1000  4.836e-18  2.577e-18
12474.6000  4.084e-19  3.120e-18
12477.1000  -8.387e-19  3.728e-18
12479.6000  -7.384e-18  4.371e-18
12482.1000  1.292e-18  4.280e-18
12484.6000  4.832e-18  4.102e-18
12487.1000  7.601e-18  3.530e-18
12489.6000  9.555e-18  2.917e-18
12492.1000  -1.016e-18  3.004e-18
12494.6000  3.873e-18  3.573e-18
12497.1000  -2.810e-19  4.536e-18
12499.6000  4.394e-18  5.091e-18
12502.1000  6.571e-18  5.213e-18
12504.6000  1.138e-17  4.951e-18
12507.1000  4.669e-19  4.649e-18
12509.6000  -4.549e-18  3.969e-18
12512.1000  8.790e-18  3.701e-18
12514.6000  -2.900e-18  3.315e-18
12517.1000  3.736e-18  2.980e-18
12519.6000  -4.852e-18  3.224e-18
12522.1000  -3.762e-18  3.854e-18
12524.6000  -6.714e-18  4.233e-18
12527.1000  -4.639e-18  4.172e-18
12529.6000  2.048e-18  3.767e-18
12532.1000  3.037e-18  3.164e-18
12534.6000  5.220e-18  3.321e-18
12537.2000  9.816e-19  3.927e-18
12539.7000  1.593e-17  4.560e-18
12542.2000  2.522e-17  4.503e-18
12544.7000  5.974e-18  4.236e-18
12547.2000  1.206e-17  3.537e-18
12549.7000  3.677e-18  3.164e-18
12552.2000  5.056e-18  3.746e-18
12554.7000  6.334e-18  4.455e-18
12557.2000  -7.905e-19  4.764e-18
12559.8000  -4.100e-18  4.347e-18
12562.3000  8.478e-18  3.900e-18
12564.8000  -6.288e-18  3.430e-18
12567.3000  2.966e-18  3.900e-18
12569.8000  -1.767e-18  4.795e-18
12572.3000  2.183e-18  5.200e-18
12574.8000  1.280e-17  5.135e-18
12577.4000  1.067e-17  4.431e-18
12579.9000  6.842e-18  3.884e-18
12582.4000  -5.563e-18  4.058e-18
12584.9000  -1.652e-18  5.082e-18
12587.4000  -4.479e-19  6.164e-18
12590.0000  -2.627e-18  6.431e-18
12592.5000  6.718e-18  6.541e-18
12595.0000  2.703e-18  6.386e-18
12597.5000  4.296e-18  6.303e-18
12600.0000  1.915e-17  7.053e-18
12602.6000  6.229e-18  7.644e-18
12605.1000  1.246e-17  8.596e-18
12607.6000  1.553e-18  9.109e-18
12610.1000  -5.539e-18  9.454e-18
12612.6000  7.508e-18  9.340e-18
12615.2000  -1.183e-18  8.629e-18
12617.7000  2.326e-17  8.889e-18
12620.2000  5.830e-18  8.806e-18
12622.7000  -1.961e-17  8.771e-18
12625.3000  8.987e-18  8.015e-18
12627.8000  6.972e-18  7.622e-18
12630.3000  2.809e-17  7.139e-18
12632.9000  3.580e-18  6.222e-18
12635.4000  1.442e-17  6.426e-18
12637.9000  -4.395e-18  6.890e-18
12640.4000  1.287e-17  7.440e-18
12643.0000  1.711e-17  7.002e-18
12645.5000  1.169e-17  6.696e-18
12648.0000  -4.418e-18  6.072e-18
12650.6000  8.284e-18  5.406e-18
12653.1000  2.129e-18  6.166e-18
12655.6000  2.325e-17  7.101e-18
12658.2000  -3.957e-18  7.937e-18
12660.7000  -6.156e-18  8.640e-18
12663.2000  1.056e-17  8.777e-18
12665.8000  6.144e-18  8.234e-18
12668.3000  -5.667e-18  8.523e-18
12670.8000  1.456e-17  9.185e-18
12673.4000  -8.329e-18  9.343e-18
12675.9000  4.174e-18  1.137e-17
12678.4000  2.414e-17  1.531e-17
12681.0000  2.102e-17  2.115e-17
12683.5000  4.433e-17  2.909e-17
12686.1000  3.396e-17  3.139e-17
12688.6000  5.799e-17  3.144e-17
12691.1000  7.597e-17  2.826e-17
12693.7000  6.306e-17  2.442e-17
12696.2000  4.012e-17  2.272e-17
12698.8000  3.341e-17  1.901e-17
12701.3000  2.890e-17  1.677e-17
12703.8000  1.923e-17  1.496e-17
12706.4000  -1.819e-17  1.238e-17
12708.9000  3.575e-17  1.161e-17
12711.5000  7.988e-18  1.038e-17
12714.0000  3.986e-18  1.008e-17
12716.6000  1.021e-17  9.312e-18
12719.1000  1.725e-17  1.010e-17
12721.6000  -7.407e-18  1.178e-17
12724.2000  2.009e-17  1.163e-17
12726.7000  9.434e-18  1.139e-17
12729.3000  2.345e-18  9.966e-18
12731.8000  -2.599e-18  9.034e-18
12734.4000  -7.419e-19  8.378e-18
12736.9000  2.974e-18  9.756e-18
12739.5000  -5.935e-18  1.096e-17
12742.0000  2.061e-17  1.312e-17
12744.6000  -8.207e-19  1.334e-17
12747.1000  9.473e-18  1.415e-17
12749.7000  4.310e-19  1.281e-17
12752.2000  1.196e-17  1.214e-17
12754.8000  3.569e-18  1.177e-17
12757.3000  1.863e-17  1.384e-17
12759.9000  2.755e-17  1.505e-17
12762.4000  2.333e-17  1.677e-17
12765.0000  1.881e-17  1.575e-17
12767.6000  -5.213e-19  1.387e-17
12770.1000  3.792e-17  1.218e-17
12772.7000  2.194e-17  1.106e-17
12775.2000  2.849e-17  1.251e-17
12777.8000  2.805e-17  1.398e-17
12780.3000  2.150e-17  1.656e-17
12782.9000  6.850e-18  1.668e-17
12785.5000  5.887e-18  1.463e-17
12788.0000  -9.325e-18  1.175e-17
12790.6000  -1.551e-17  7.686e-18
12793.1000  -3.087e-18  7.239e-18
12795.7000  5.561e-19  8.453e-18
12798.3000  9.950e-18  1.047e-17
12800.8000  -4.179e-19  1.330e-17
12803.4000  1.049e-17  1.408e-17
12805.9000  3.920e-18  1.408e-17
12808.5000  7.996e-18  1.144e-17
12811.1000  1.299e-17  7.847e-18
12813.6000  2.065e-18  5.154e-18
12816.2000  2.180e-18  4.702e-18
12818.8000  -1.403e-17  6.199e-18
12821.3000  1.303e-17  8.287e-18
12823.9000  1.106e-17  8.641e-18
12826.5000  3.066e-18  8.055e-18
12829.0000  1.412e-17  7.528e-18
12831.6000  -1.913e-18  6.177e-18
12834.2000  2.771e-18  5.602e-18
12836.7000  4.314e-20  5.810e-18
12839.3000  4.279e-18  6.026e-18
12841.9000  3.118e-18  6.474e-18
12844.4000  2.124e-17  7.026e-18
12847.0000  1.795e-17  6.326e-18
12849.6000  1.611e-17  5.147e-18
12852.2000  4.736e-18  3.113e-18
12854.7000  -1.474e-18  2.367e-18
12857.3000  5.872e-18  2.592e-18
12859.9000  -1.414e-18  3.543e-18
12862.4000  -5.299e-18  4.834e-18
12865.0000  1.800e-17  5.350e-18
12867.6000  -4.324e-19  5.056e-18
12870.2000  -4.224e-18  4.232e-18
12872.7000  6.230e-19  3.044e-18
12875.3000  6.217e-18  2.274e-18
12877.9000  1.701e-18  2.569e-18
12880.5000  2.626e-18  3.273e-18
12883.1000  1.130e-18  4.003e-18
12885.6000  2.582e-18  4.698e-18
12888.2000  -2.304e-18  4.566e-18
12890.8000  -8.950e-18  4.214e-18
12893.4000  1.958e-17  3.779e-18
12895.9000  7.313e-18  4.846e-18
12898.5000  5.583e-19  8.508e-18
12901.1000  5.703e-18  1.314e-17
12903.7000  1.441e-17  1.583e-17
12906.3000  1.622e-17  1.545e-17
12908.9000  -3.137e-18  1.217e-17
12911.4000  3.916e-19  8.285e-18
12914.0000  6.202e-18  6.237e-18
12916.6000  1.316e-17  7.480e-18
12919.2000  1.342e-17  8.475e-18
12921.8000  6.806e-18  8.201e-18
12924.4000  3.154e-18  6.956e-18
12927.0000  -2.946e-19  4.504e-18
12929.5000  -2.567e-18  3.108e-18
12932.1000  1.549e-18  2.982e-18
12934.7000  1.329e-18  3.328e-18
12937.3000  3.765e-18  3.991e-18
12939.9000  3.081e-18  4.700e-18
12942.5000  6.372e-18  4.906e-18
12945.1000  8.255e-18  4.537e-18
12947.7000  1.602e-18  3.731e-18
12950.3000  6.015e-18  2.658e-18
12952.8000  -5.326e-19  2.463e-18
12955.4000  -1.572e-18  2.405e-18
12958.0000  5.507e-18  2.329e-18
12960.6000  5.422e-18  2.259e-18
12963.2000  2.910e-18  2.359e-18
12965.8000  -2.266e-19  2.710e-18
12968.4000  1.000e-18  3.071e-18
12971.0000  3.550e-19  3.207e-18
12973.6000  -3.306e-18  3.136e-18
12976.2000  7.064e-19  3.313e-18
12978.8000  1.012e-17  4.150e-18
12981.4000  1.802e-18  5.399e-18
12984.0000  5.886e-18  6.121e-18
12986.6000  -6.083e-18  5.905e-18
12989.2000  1.759e-17  4.967e-18
12991.8000  4.219e-18  3.165e-18
12994.4000  3.061e-18  2.236e-18
12997.0000  6.536e-18  2.335e-18
12999.6000  3.197e-18  2.560e-18
13002.2000  4.426e-19  2.673e-18
13004.8000  1.625e-19  2.727e-18
13007.4000  -1.759e-19  2.688e-18
13010.0000  -1.647e-18  2.929e-18
13012.6000  7.409e-18  4.433e-18
13015.2000  1.104e-18  7.731e-18
13017.8000  2.740e-18  1.120e-17
13020.4000  5.092e-18  1.226e-17
13023.0000  -7.131e-19  1.161e-17
13025.6000  6.253e-18  8.809e-18
13028.2000  6.866e-18  4.222e-18
13030.8000  5.689e-18  2.334e-18
13033.5000  3.235e-18  2.054e-18
13036.1000  1.834e-18  2.030e-18
13038.7000  -3.283e-18  2.039e-18
13041.3000  3.420e-18  2.171e-18
13043.9000  7.266e-18  3.236e-18
13046.5000  9.886e-18  5.139e-18
13049.1000  6.204e-18  6.968e-18
13051.7000  -7.340e-18  7.408e-18
13054.3000  2.337e-18  7.106e-18
13056.9000  -7.467e-18  5.576e-18
13059.6000  -1.533e-18  3.224e-18
13062.2000  -1.045e-18  2.339e-18
13064.8000  2.819e-18  2.247e-18
13067.4000  6.008e-18  2.127e-18
13070.0000  6.262e-20  2.005e-18
13072.6000  6.238e-18  2.113e-18
13075.3000  4.188e-18  3.053e-18
13077.9000  -4.055e-18  6.917e-18
13080.5000  -1.101e-17  1.120e-17
13083.1000  -1.513e-17  1.380e-17
13085.7000  2.346e-17  1.343e-17
13088.3000  -1.657e-17  1.132e-17
13091.0000  3.930e-18  6.159e-18
13093.6000  1.561e-19  2.660e-18
13096.2000  4.337e-18  2.195e-18
13098.8000  -2.069e-18  2.244e-18
13101.4000  3.511e-18  2.389e-18
13104.1000  5.510e-18  2.317e-18
13106.7000  9.950e-18  2.341e-18
13109.3000  3.234e-18  2.188e-18
13111.9000  -1.467e-18  2.118e-18
13114.6000  2.326e-18  2.009e-18
13117.2000  4.828e-18  2.294e-18
13119.8000  -3.395e-18  3.744e-18
13122.4000  1.555e-17  5.734e-18
13125.1000  7.178e-18  7.034e-18
13127.7000  6.808e-18  7.283e-18
13130.3000  1.485e-17  6.537e-18
13132.9000  3.639e-18  4.977e-18
13135.6000  8.947e-18  3.023e-18
13138.2000  2.330e-17  2.759e-18
13140.8000  5.780e-17  2.709e-18
13143.5000  1.132e-16  2.566e-18
13146.1000  1.551e-16  2.854e-18
13148.7000  1.570e-16  4.926e-18
13151.4000  1.251e-16  7.647e-18
13154.0000  6.603e-17  1.032e-17
13156.6000  1.980e-17  1.075e-17
13159.3000  1.381e-17  8.977e-18
13161.9000  -6.099e-18  6.232e-18
13164.5000  4.346e-18  2.914e-18
13167.2000  4.603e-18  2.145e-18
13169.8000  4.614e-18  2.135e-18
13172.4000  5.632e-18  2.079e-18
13175.1000  3.530e-18  1.994e-18
13177.7000  -1.803e-19  2.064e-18
13180.3000  7.418e-19  2.054e-18
13183.0000  1.108e-18  2.033e-18
13185.6000  9.979e-19  2.090e-18
13188.3000  2.446e-18  1.971e-18
13190.9000  -1.741e-19  2.105e-18
13193.5000  2.184e-18  2.159e-18
13196.2000  3.303e-18  2.088e-18
13198.8000  -1.822e-18  2.193e-18
13201.5000  3.023e-18  2.583e-18
13204.1000  3.325e-18  4.123e-18
13206.7000  1.366e-17  5.500e-18
13209.4000  4.662e-18  5.794e-18
13212.0000  6.975e-18  5.936e-18
13214.7000  1.326e-18  4.505e-18
13217.3000  6.098e-19  3.179e-18
13220.0000  3.383e-18  2.396e-18
13222.6000  5.056e-20  2.364e-18
13225.3000  2.170e-18  2.463e-18
13227.9000  6.087e-18  3.788e-18
13230.5000  -5.389e-18  6.425e-18
13233.2000  8.906e-18  7.971e-18
13235.8000  -1.444e-17  8.765e-18
13238.5000  5.529e-18  7.789e-18
13241.1000  7.545e-18  5.775e-18
13243.8000  5.085e-18  3.089e-18
13246.4000  8.354e-19  2.408e-18
13249.1000  -1.617e-18  2.239e-18
13251.7000  2.183e-18  2.143e-18
13254.4000  2.581e-18  1.898e-18
13257.1000  6.399e-18  1.893e-18
13259.7000  4.624e-18  1.943e-18
13262.4000  4.032e-18  2.007e-18
13265.0000  -2.058e-19  2.218e-18
13267.7000  1.308e-18  2.202e-18
13270.3000  -4.271e-18  2.324e-18
13273.0000  3.700e-18  2.316e-18
13275.6000  4.299e-18  2.367e-18
13278.3000  2.750e-18  2.356e-18
13280.9000  3.093e-18  2.495e-18
13283.6000  -7.587e-18  2.284e-18
13286.3000  -4.961e-18  2.159e-18
13288.9000  -1.011e-17  2.128e-18
13291.6000  -6.219e-19  2.062e-18
13294.2000  4.617e-18  2.658e-18
13296.9000  3.446e-18  3.182e-18
13299.6000  3.017e-18  3.617e-18
13302.2000  6.716e-18  3.712e-18
13304.9000  5.143e-18  3.154e-18
13307.6000  4.053e-18  2.446e-18
13310.2000  -6.785e-19  2.111e-18
13312.9000  3.681e-19  2.089e-18
13315.5000  -6.800e-19  2.749e-18
13318.2000  5.404e-18  4.101e-18
13320.9000  1.350e-18  5.396e-18
13323.5000  6.372e-18  5.808e-18
13326.2000  -1.812e-18  5.411e-18
13328.9000  -1.226e-18  4.005e-18
13331.5000  3.573e-18  2.556e-18
13334.2000  5.979e-18  2.062e-18
13336.9000  -5.220e-19  2.044e-18
13339.5000  -1.740e-18  2.118e-18
13342.2000  -1.922e-18  2.038e-18
13344.9000  2.948e-19  2.026e-18
13347.6000  2.998e-18  2.005e-18
13350.2000  3.634e-18  2.092e-18
13352.9000  1.048e-18  2.068e-18
13355.6000  -3.419e-18  2.092e-18
13358.2000  2.520e-18  2.211e-18
13360.9000  -3.159e-18  2.118e-18
13363.6000  1.228e-20  2.042e-18
13366.3000  4.046e-18  2.036e-18
13368.9000  7.823e-18  2.218e-18
13371.6000  5.651e-18  2.251e-18
13374.3000  8.805e-18  2.246e-18
13377.0000  7.640e-18  2.241e-18
13379.7000  6.463e-18  2.125e-18
13382.3000  -1.667e-18  2.234e-18
13385.0000  1.170e-18  2.227e-18
13387.7000  3.829e-18  2.264e-18
13390.4000  3.289e-19  2.185e-18
13393.0000  8.921e-18  2.552e-18
13395.7000  1.216e-17  3.027e-18
13398.4000  2.089e-17  3.492e-18
13401.1000  2.370e-17  3.662e-18
13403.8000  6.637e-17  3.294e-18
13406.5000  1.403e-16  2.634e-18
13409.1000  2.278e-16  2.414e-18
13411.8000  2.562e-16  2.600e-18
13414.5000  2.123e-16  3.436e-18
13417.2000  1.042e-16  4.333e-18
13419.9000  5.250e-17  4.600e-18
13422.6000  1.647e-17  4.398e-18
13425.2000  1.360e-17  3.858e-18
13427.9000  1.064e-17  2.750e-18
13430.6000  2.392e-18  2.237e-18
13433.3000  3.487e-18  2.331e-18
13436.0000  9.069e-19  2.527e-18
13438.7000  9.254e-18  2.732e-18
13441.4000  1.794e-18  2.767e-18
13444.1000  -1.691e-18  2.680e-18
13446.8000  2.707e-18  2.453e-18
13449.4000  -5.275e-18  2.475e-18
13452.1000  -1.270e-18  2.435e-18
13454.8000  -1.621e-18  2.551e-18
13457.5000  3.280e-18  2.613e-18
13460.2000  5.457e-18  2.624e-18
13462.9000  3.645e-18  2.628e-18
13465.6000  1.605e-18  2.697e-18
13468.3000  3.322e-18  2.643e-18
13471.0000  2.767e-18  2.761e-18
13473.7000  4.800e-19  3.235e-18
13476.4000  1.260e-18  3.675e-18
13479.1000  6.501e-18  3.815e-18
13481.8000  6.018e-18  3.677e-18
13484.5000  6.128e-18  3.381e-18
13487.2000  6.013e-18  3.125e-18
13489.9000  4.790e-18  2.829e-18
13492.6000  -2.398e-19  2.570e-18
13495.3000  7.967e-18  2.594e-18
13498.0000  8.065e-18  2.796e-18
13500.7000  -2.903e-18  3.206e-18
13503.4000  2.833e-18  3.810e-18
13506.1000  -9.030e-19  4.151e-18
13508.8000  4.410e-19  4.003e-18
13511.5000  4.548e-18  3.765e-18
13514.2000  3.166e-18  3.446e-18
13516.9000  4.184e-18  3.389e-18
13519.6000  2.285e-18  3.409e-18
13522.3000  8.864e-18  4.254e-18
13525.0000  2.415e-17  4.897e-18
13527.7000  3.372e-17  5.107e-18
13530.4000  6.887e-17  4.688e-18
13533.1000  1.787e-16  3.876e-18
13535.9000  3.397e-16  3.932e-18
13538.6000  6.768e-16  4.354e-18
13541.3000  8.755e-16  5.332e-18
13544.0000  7.864e-16  6.835e-18
13546.7000  3.853e-16  7.119e-18
13549.4000  9.968e-17  6.216e-18
13552.1000  3.380e-17  5.499e-18
13554.8000  2.438e-17  5.297e-18
13557.5000  1.206e-17  5.265e-18
13560.3000  3.805e-18  4.457e-18
13563.0000  6.673e-19  3.879e-18
13565.7000  4.073e-18  3.884e-18
13568.4000  9.329e-18  4.419e-18
13571.1000  7.261e-18  5.113e-18
13573.8000  1.327e-17  5.197e-18
13576.5000  6.760e-18  4.859e-18
13579.3000  5.199e-18  4.601e-18
13582.0000  3.156e-18  5.050e-18
13584.7000  6.729e-18  5.026e-18
13587.4000  -9.847e-18  5.195e-18
13590.1000  -3.868e-18  6.419e-18
13592.9000  1.265e-17  7.933e-18
13595.6000  2.318e-17  7.834e-18
13598.3000  7.581e-18  6.619e-18
13601.0000  -2.230e-18  5.915e-18
13603.7000  -4.299e-18  6.922e-18
13606.5000  -1.292e-17  8.861e-18
13609.2000  -1.139e-17  1.157e-17
13611.9000  -7.749e-18  1.287e-17
13614.6000  9.014e-18  1.704e-17
13617.4000  -6.569e-18  2.343e-17
13620.1000  4.122e-17  2.679e-17
13622.8000  3.423e-18  1.948e-17
13625.5000  8.040e-18  1.154e-17
13628.3000  1.895e-18  6.440e-18
13631.0000  -1.097e-17  4.741e-18
13633.7000  7.676e-18  4.525e-18
13636.4000  9.480e-18  5.086e-18
13639.2000  1.243e-17  6.188e-18
13641.9000  6.191e-18  9.281e-18
13644.6000  1.506e-17  1.358e-17
13647.4000  -6.892e-18  1.438e-17
13650.1000  1.677e-17  1.288e-17
13652.8000  1.946e-18  9.452e-18
13655.6000  7.255e-18  5.956e-18
13658.3000  -1.911e-18  6.257e-18
13661.0000  1.304e-17  7.733e-18
13663.8000  1.798e-17  8.997e-18
13666.5000  -7.854e-18  1.074e-17
13669.2000  -2.383e-18  1.146e-17
13672.0000  -1.164e-17  1.125e-17
13674.7000  -1.106e-17  1.472e-17
13677.4000  -4.453e-18  1.457e-17
13680.2000  2.374e-17  1.202e-17
13682.9000  2.164e-17  1.179e-17
13685.7000  -1.434e-17  1.277e-17
13688.4000  1.178e-17  1.110e-17
13691.1000  9.967e-18  9.296e-18
13693.9000  1.568e-17  8.180e-18
13696.6000  2.254e-18  7.139e-18
13699.4000  -5.121e-18  5.354e-18
13702.1000  4.456e-18  5.723e-18
13704.8000  4.231e-18  6.363e-18
13707.6000  -1.723e-18  8.253e-18
13710.3000  2.152e-17  1.114e-17
13713.1000  1.713e-17  1.078e-17
13715.8000  7.901e-18  1.079e-17
13718.6000  1.220e-17  9.663e-18
13721.3000  1.096e-17  7.115e-18
13724.1000  2.095e-18  4.888e-18
13726.8000  -4.302e-18  4.513e-18
13729.5000  4.274e-18  4.498e-18
13732.3000  1.111e-17  4.192e-18
13735.0000  9.063e-18  3.964e-18
13737.8000  -1.654e-18  3.674e-18
13740.5000  2.697e-18  5.206e-18
13743.3000  1.260e-18  7.445e-18
13746.0000  2.176e-18  9.212e-18
13748.8000  2.278e-18  8.223e-18
13751.5000  6.646e-18  6.571e-18
13754.3000  5.887e-18  4.552e-18
13757.0000  1.357e-17  5.293e-18
13759.8000  -2.229e-18  6.222e-18
13762.6000  1.864e-17  6.432e-18
13765.3000  5.620e-18  7.694e-18
13768.1000  -7.879e-18  8.759e-18
13770.8000  7.409e-18  8.369e-18
13773.6000  3.528e-18  6.753e-18
13776.3000  2.983e-17  6.566e-18
13779.1000  2.207e-17  7.490e-18
13781.8000  2.825e-17  1.188e-17
13784.6000  7.358e-18  1.775e-17
13787.4000  4.093e-18  1.886e-17
13790.1000  -2.929e-17  1.577e-17
13792.9000  -1.602e-17  1.214e-17
13795.6000  -6.885e-18  1.265e-17
13798.4000  1.624e-18  1.743e-17
13801.2000  1.221e-17  2.966e-17
13803.9000  -1.512e-17  6.275e-17
13806.7000  -2.971e-17  7.996e-17
13809.5000  -4.351e-17  7.079e-17
13812.2000  -2.946e-17  4.726e-17
13815.0000  -3.544e-17  3.441e-17
13817.8000  6.129e-17  3.662e-17
13820.5000  -5.645e-17  7.041e-17
13823.3000  4.411e-17  9.847e-17
13826.0000  3.873e-17  1.004e-16
13828.8000  2.005e-16  9.807e-17
13831.6000  9.616e-17  7.826e-17
13834.4000  -4.200e-17  6.656e-17
13837.1000  -2.065e-16  8.124e-17
13839.9000  -4.478e-17  8.195e-17
13842.7000  -4.945e-17  6.299e-17
13845.4000  4.707e-17  6.366e-17
13848.2000  1.092e-16  7.500e-17
13851.0000  4.890e-17  8.475e-17
13853.7000  -1.667e-17  8.785e-17
13856.5000  4.375e-17  7.607e-17
13859.3000  4.757e-17  7.544e-17
13862.1000  7.751e-17  8.352e-17
13864.8000  -2.874e-17  8.920e-17
13867.6000  1.065e-16  8.030e-17
13870.4000  5.288e-17  5.647e-17
13873.2000  5.823e-17  7.511e-17
13875.9000  7.103e-18  1.612e-16
13878.7000  1.097e-16  2.233e-16
13881.5000  1.396e-16  2.168e-16
13884.3000  8.313e-17  1.283e-16
13887.1000  7.105e-17  7.861e-17
13889.8000  -6.614e-18  6.944e-17
13892.6000  -2.687e-17  7.224e-17
13895.4000  7.872e-17  8.043e-17
13898.2000  1.282e-16  8.291e-17
13901.0000  9.187e-17  8.433e-17
13903.7000  -3.504e-17  1.020e-16
13906.5000  1.507e-16  1.147e-16
13909.3000  4.415e-17  1.246e-16
13912.1000  1.760e-16  1.464e-16
13914.9000  2.268e-16  1.128e-16
13917.7000  1.998e-16  1.212e-16
13920.4000  2.012e-16  2.901e-16
13923.2000  2.189e-16  1.230e-15
13926.0000  -2.678e-16  6.707e-16
13928.8000  -3.186e-19  2.099e-16
13931.6000  4.492e-18  1.347e-16
13934.4000  -1.493e-19  1.244e-16
13937.2000  1.322e-16  1.346e-16
13940.0000  2.201e-16  1.655e-16
13942.7000  -2.448e-16  2.457e-16
13945.5000  1.249e-16  3.174e-16
13948.3000  -3.405e-16  4.131e-16
13951.1000  4.518e-16  6.056e-16
13953.9000  4.010e-16  6.739e-16
13956.7000  4.526e-16  7.175e-16
13959.5000  -2.946e-16  7.849e-16
13962.3000  3.521e-16  7.903e-16
13965.1000  1.665e-16  5.029e-16
13967.9000  4.186e-18  2.595e-16
13970.7000  -5.640e-17  2.176e-16
13973.5000  2.705e-16  2.223e-16
13976.3000  -4.655e-17  2.306e-16
13979.1000  -2.832e-17  3.330e-16
13981.9000  6.302e-16  4.589e-16
13984.7000  1.350e-16  4.530e-16
13987.5000  5.005e-16  4.602e-16
13990.3000  7.245e-16  5.909e-16
13993.1000  -1.373e-15  1.386e-15
13995.9000  1.676e-16  6.078e-16
13998.7000  3.286e-16  3.823e-16
14001.5000  3.890e-16  3.062e-16
14004.3000  4.623e-16  3.382e-16
14007.1000  3.840e-16  3.877e-16
14009.9000  -2.995e-18  4.225e-16
14012.7000  -7.356e-17  3.497e-16
14015.5000  6.754e-17  2.548e-16
14018.3000  3.277e-17  4.535e-16
14021.1000  -5.968e-16  1.306e-15
14023.9000  8.454e-16  2.438e-15
14026.7000  -1.367e-15  3.609e-15
14029.5000  5.660e-16  7.290e-16
14032.3000  6.320e-16  7.778e-16
14035.1000  -2.920e-16  3.009e-15
14037.9000  1.139e-16  1.915e-15
14040.7000  -1.104e-16  4.827e-16
14043.6000  -2.585e-17  2.544e-16
14046.4000  1.584e-16  2.557e-16
14049.2000  6.318e-16  3.511e-16
14052.0000  3.563e-16  4.901e-16
14054.8000  2.535e-16  6.023e-16
14057.6000  -1.306e-16  4.667e-16
14060.4000  -7.012e-16  3.518e-16
14063.2000  -4.667e-16  4.907e-16
14066.1000  -1.263e-15  9.326e-16
14068.9000  -6.454e-17  1.629e-15
14071.7000  1.551e-15  3.682e-15
14074.5000  1.624e-15  8.117e-15
14077.3000  -2.521e-15  9.535e-15
14080.1000  -1.688e-15  5.809e-15
14083.0000  -7.018e-16  3.580e-15
14085.8000  9.746e-16  1.167e-15
14088.6000  -4.841e-16  1.747e-15
14091.4000  1.358e-15  1.282e-15
14094.2000  2.800e-16  5.215e-16
14097.1000  2.960e-16  3.017e-16
14099.9000  1.607e-17  3.363e-16
14102.7000  -6.624e-17  4.003e-16
14105.5000  -3.746e-16  4.399e-16
14108.3000  -2.109e-16  5.209e-16
14111.2000  -1.125e-16  6.554e-16
14114.0000  1.518e-15  8.764e-16
14116.8000  1.435e-15  1.017e-15
14119.6000  1.356e-15  9.345e-16
14122.5000  -2.316e-16  5.206e-16
14125.3000  1.496e-16  4.630e-16
14128.1000  -2.342e-16  4.514e-16
14130.9000  2.666e-16  4.278e-16
14133.8000  -1.048e-16  4.034e-16
14136.6000  1.774e-16  4.461e-16
14139.4000  4.415e-15  8.313e-15
14142.3000  8.185e-16  2.073e-14
14145.1000  -4.451e-16  2.018e-14
14147.9000  -1.031e-14  5.516e-14
14150.8000  -2.095e-15  1.869e-14
14153.6000  2.505e-16  6.646e-15
14156.4000  -1.054e-15  3.597e-15
14159.3000  9.417e-16  4.409e-15
14162.1000  -3.466e-15  1.012e-14
14164.9000  2.689e-15  1.058e-14
14167.8000  1.419e-15  7.367e-15
14170.6000  1.584e-15  5.435e-15
14173.4000  9.306e-16  2.526e-15
14176.3000  -1.220e-16  1.946e-15
14179.1000  1.593e-15  1.678e-15
14181.9000  1.333e-15  1.455e-15
14184.8000  5.923e-16  1.165e-15
14187.6000  -1.680e-16  9.525e-16
14190.5000  6.403e-16  7.222e-16
14193.3000  1.257e-16  4.956e-16
14196.1000  -2.980e-16  3.013e-16
14199.0000  1.244e-16  6.613e-16
14201.8000  -4.081e-17  5.844e-16
14204.7000  1.329e-16  3.802e-16
14207.5000  4.324e-16  5.454e-16
14210.4000  -4.559e-16  6.856e-16
14213.2000  -1.152e-15  7.091e-16
14216.0000  -1.503e-16  1.491e-15
14218.9000  -1.455e-16  2.116e-15
14221.7000  3.152e-17  5.751e-16
14224.6000  1.446e-16  3.458e-16
14227.4000  7.241e-17  4.428e-16
14230.3000  3.294e-16  5.576e-16
14233.1000  -5.642e-17  6.645e-16
14236.0000  -2.928e-16  7.340e-16
14238.8000  -4.781e-16  9.567e-16
14241.7000  4.004e-16  1.063e-15
14244.5000  3.702e-16  1.179e-15
14247.4000  1.413e-16  1.194e-15
14250.2000  6.899e-16  1.436e-15
14253.1000  2.801e-16  1.384e-15
14255.9000  -9.837e-16  1.541e-15
14258.8000  -6.567e-16  1.790e-15
14261.6000  6.010e-16  1.733e-15
14264.5000  4.865e-16  1.258e-15
14267.3000  8.818e-16  1.030e-15
14270.2000  2.246e-16  1.618e-15
14273.1000  -NaN  0.000e+00
14275.9000  -NaN  0.000e+00
14278.8000  -NaN  0.000e+00
14281.6000  -NaN  0.000e+00
14284.5000  -NaN  0.000e+00
14287.3000  -NaN  0.000e+00
14290.2000  -NaN  0.000e+00
14293.1000  -NaN  0.000e+00
14295.9000  -NaN  0.000e+00
14298.8000  -NaN  0.000e+00
14301.6000  -NaN  0.000e+00
14304.5000  -NaN  0.000e+00
14307.4000  -NaN  0.000e+00
14310.2000  -NaN  0.000e+00
